Multisizer	22:09  13 Aug 2020
File name:	200_60-80__11.#m4
File ID:	200_60-80
Sample ID:	
Control mode:	Time,  120  seconds 
Acquired:	21:51  13 Aug 2020
Size bins:	200
From	4.432
To	120.0
Sizing threshold:	4.430
Total pulses:	19545
Counting threshold:	4.430
Counts above threshold:	19545
Coincidence corrected:	19859

Sequence	Time	Diameter	Pulse Width
	seconds	um	us
1	0.000	6.049	27.5
2	0.027	5.721	33.3
3	0.053	6.776	39.3
4	0.080	79.25	270.0
5	0.107	63.92	34.0
6	0.133	60.92	36.0
7	0.160	7.153	29.7
8	0.189	5.132	28.8
9	0.217	7.258	54.7
10	0.246	55.30	37.7
11	0.274	61.55	32.5
12	0.303	8.831	31.8
13	0.331	56.89	32.5
14	0.360	4.633	30.2
15	0.377	5.285	28.5
16	0.393	57.02	38.2
17	0.410	5.194	26.8
18	0.427	6.639	33.0
19	0.443	60.85	33.3
20	0.460	5.361	31.7
21	0.477	20.20	38.5
22	0.493	6.352	34.7
23	0.510	15.79	34.0
24	0.527	4.543	25.3
25	0.543	6.547	71.7
26	0.560	39.91	1861.3
27	0.575	7.766	31.2
28	0.591	5.435	30.2
29	0.606	6.890	30.7
30	0.622	87.14	39.2
31	0.637	84.04	36.2
32	0.652	9.534	31.2
33	0.668	56.84	38.0
34	0.683	83.02	278.5
35	0.698	60.14	32.7
36	0.714	9.645	32.0
37	0.729	7.402	33.8
38	0.745	56.56	38.7
39	0.760	12.04	31.5
40	0.778	4.944	30.5
41	0.796	5.679	30.2
42	0.815	13.47	32.0
43	0.833	6.536	31.5
44	0.851	4.495	39.3
45	0.869	11.01	35.5
46	0.887	4.676	24.8
47	0.905	4.732	28.3
48	0.924	4.961	14.8
49	0.942	4.544	11.8
50	0.960	9.027	31.0
51	1.000	63.26	34.0
52	1.040	4.462	57.7
53	1.080	9.214	49.4
54	1.120	20.21	31.2
55	1.160	14.32	28.7
56	1.180	4.462	20.4
57	1.200	8.690	29.7
58	1.220	12.85	31.4
59	1.240	5.930	27.2
60	1.260	6.361	29.4
61	1.280	5.529	29.5
62	1.300	12.11	33.9
63	1.320	80.96	266.2
64	1.340	9.706	31.4
65	1.360	5.963	29.5
66	1.378	55.97	32.5
67	1.396	6.529	31.4
68	1.415	5.710	30.5
69	1.433	6.743	41.0
70	1.451	4.924	27.7
71	1.469	6.772	3174.9
72	1.487	31.06	492.0
73	1.505	5.051	29.9
74	1.524	9.140	35.2
75	1.542	5.274	34.5
76	1.560	79.60	305.7
77	1.582	6.202	33.7
78	1.604	83.08	319.9
79	1.627	4.866	29.5
80	1.649	77.57	258.7
81	1.671	57.55	32.5
82	1.693	91.28	313.5
83	1.716	76.04	32.9
84	1.738	14.89	24.9
85	1.760	60.05	38.4
86	1.778	58.61	36.9
87	1.796	40.27	32.4
88	1.815	5.954	34.0
89	1.833	5.140	29.7
90	1.851	20.85	35.0
91	1.869	26.70	266.2
92	1.887	54.51	37.9
93	1.905	58.83	32.9
94	1.924	63.39	32.9
95	1.942	13.10	31.0
96	1.960	4.521	9.2
97	1.980	59.22	40.5
98	2.000	61.95	38.0
99	2.020	80.25	325.9
100	2.040	9.550	32.0
101	2.060	12.24	34.9
102	2.080	7.471	32.7
103	2.100	12.95	33.4
104	2.120	6.077	42.0
105	2.140	64.89	32.9
106	2.160	4.666	25.0
107	2.174	7.998	31.2
108	2.189	8.383	32.9
109	2.203	27.33	15.7
110	2.217	78.47	480.9
111	2.231	4.460	10.7
112	2.246	4.538	7.7
113	2.260	4.670	10.4
114	2.274	4.517	9.7
115	2.289	4.655	13.9
116	2.303	5.016	79.5
117	2.317	4.685	28.4
118	2.331	7.427	33.0
119	2.346	5.761	29.2
120	2.360	5.055	30.5
121	2.389	4.708	29.5
122	2.417	12.82	31.7
123	2.446	19.86	34.0
124	2.474	5.346	28.2
125	2.503	5.796	29.9
126	2.531	6.747	38.7
127	2.560	9.921	41.7
128	2.610	82.51	350.5
129	2.660	4.898	28.9
130	2.710	5.509	30.5
131	2.760	5.855	38.7
132	2.774	14.20	32.9
133	2.789	82.51	33.2
134	2.803	16.01	110.7
135	2.817	57.54	38.0
136	2.831	4.436	25.7
137	2.846	18.11	722.9
138	2.860	81.10	36.4
139	2.874	6.733	40.2
140	2.889	56.20	32.4
141	2.903	20.66	153.5
142	2.917	23.87	36.9
143	2.931	58.91	38.0
144	2.946	4.701	16.5
145	2.960	39.65	32.4
146	2.985	9.123	31.0
147	3.010	11.01	33.0
148	3.035	5.355	29.7
149	3.060	59.47	37.5
150	3.085	25.95	35.7
151	3.110	88.62	414.5
152	3.135	4.822	25.5
153	3.160	7.462	29.7
154	3.180	4.535	24.4
155	3.200	15.13	25.6
156	3.220	14.56	33.9
157	3.240	6.134	44.9
158	3.260	4.672	28.1
159	3.280	9.881	31.7
160	3.300	85.82	33.2
161	3.320	18.25	18.4
162	3.340	8.496	31.4
163	3.360	8.694	33.6
164	3.380	4.668	10.1
165	3.400	4.815	30.1
166	3.420	63.61	37.2
167	3.440	11.63	32.2
168	3.460	5.702	42.9
169	3.480	57.62	32.9
170	3.500	11.67	31.6
171	3.520	5.846	30.1
172	3.540	16.30	30.4
173	3.560	14.13	21.6
174	3.593	6.375	30.4
175	3.627	60.40	37.7
176	3.660	5.540	35.6
177	3.693	60.02	41.4
178	3.727	5.676	29.4
179	3.760	5.149	27.4
180	3.789	5.669	31.7
181	3.817	79.86	307.9
182	3.846	6.661	33.6
183	3.874	61.22	38.2
184	3.903	19.22	32.7
185	3.931	74.97	37.1
186	3.960	58.90	32.7
187	3.989	5.738	29.6
188	4.017	61.09	32.7
189	4.046	12.20	33.1
190	4.074	20.29	32.2
191	4.103	21.66	382.7
192	4.131	55.86	37.2
193	4.160	5.710	28.6
194	4.182	15.04	25.6
195	4.204	6.283	32.4
196	4.227	8.272	32.4
197	4.249	5.551	138.7
198	4.271	14.62	34.4
199	4.293	4.524	27.6
200	4.316	57.98	38.2
201	4.338	5.588	20.7
202	4.360	5.112	27.2
203	4.393	76.06	37.7
204	4.427	62.73	37.7
205	4.460	5.149	29.1
206	4.493	23.03	31.7
207	4.527	5.995	33.9
208	4.560	13.61	24.6
209	4.593	5.422	18.9
210	4.627	5.174	38.1
211	4.660	12.56	32.2
212	4.693	6.833	36.9
213	4.727	15.39	29.7
214	4.760	76.47	33.4
215	4.789	85.24	38.1
216	4.817	4.588	29.7
217	4.846	5.930	32.6
218	4.874	6.630	30.9
219	4.903	5.368	30.6
220	4.931	12.22	43.4
221	4.960	6.037	26.9
222	4.989	34.58	52.1
223	5.017	5.012	32.6
224	5.046	17.67	33.7
225	5.074	81.08	39.4
226	5.103	63.33	37.6
227	5.131	5.728	30.1
228	5.160	5.610	30.4
229	5.189	12.79	31.1
230	5.217	4.781	479.9
231	5.246	5.348	27.9
232	5.274	16.74	34.4
233	5.303	58.83	32.9
234	5.331	10.89	30.1
235	5.360	55.90	34.2
236	5.385	12.07	32.4
237	5.410	4.593	19.9
238	5.435	4.521	22.7
239	5.460	6.258	67.7
240	5.485	4.542	26.9
241	5.510	4.925	13.4
242	5.535	7.720	31.9
243	5.560	5.830	29.1
244	5.589	8.476	51.2
245	5.617	19.03	43.9
246	5.646	84.59	373.1
247	5.674	5.325	28.2
248	5.703	6.690	30.1
249	5.731	5.272	31.2
250	5.760	13.50	30.9
251	5.780	11.08	30.7
252	5.800	6.356	458.7
253	5.820	7.851	34.2
254	5.840	57.46	33.1
255	5.860	5.144	32.6
256	5.880	4.719	29.6
257	5.900	9.366	30.8
258	5.920	62.48	37.6
259	5.940	4.469	26.6
260	5.960	4.850	10.9
261	5.993	5.429	28.4
262	6.027	6.881	30.6
263	6.060	15.37	28.9
264	6.093	13.07	34.6
265	6.127	4.625	7.9
266	6.160	62.04	32.9
267	6.200	5.375	30.4
268	6.240	18.04	32.9
269	6.280	5.320	33.1
270	6.320	12.11	32.6
271	6.360	9.537	31.1
272	6.380	5.267	29.6
273	6.400	5.941	30.6
274	6.420	5.267	26.9
275	6.440	59.71	38.4
276	6.460	8.886	31.4
277	6.480	32.88	976.8
278	6.500	8.231	26.6
279	6.520	57.54	32.8
280	6.540	7.279	3257.8
281	6.560	5.757	33.6
282	6.580	13.68	1128.3
283	6.600	61.69	37.9
284	6.620	58.87	38.3
285	6.640	88.41	319.9
286	6.660	6.118	29.8
287	6.680	16.31	14.9
288	6.700	15.26	28.4
289	6.720	12.70	31.8
290	6.740	6.363	31.4
291	6.760	78.83	33.3
292	6.785	5.556	32.6
293	6.810	10.58	47.6
294	6.835	4.523	24.1
295	6.860	5.630	29.9
296	6.885	6.127	64.8
297	6.910	8.601	692.3
298	6.935	55.99	32.4
299	6.960	6.599	30.8
300	6.989	5.108	29.6
301	7.017	5.523	29.3
302	7.046	6.257	31.1
303	7.074	6.706	31.6
304	7.103	18.05	33.1
305	7.131	60.99	37.8
306	7.160	4.907	10.4
307	7.182	64.19	38.1
308	7.204	16.40	29.6
309	7.227	15.92	30.9
310	7.249	61.25	32.8
311	7.271	5.174	30.9
312	7.293	7.235	37.9
313	7.316	60.72	32.8
314	7.338	12.43	34.4
315	7.360	29.69	13.3
316	7.389	75.42	38.1
317	7.417	87.77	298.1
318	7.446	14.36	15.4
319	7.474	19.01	31.4
320	7.503	5.031	31.6
321	7.531	4.508	26.6
322	7.560	81.73	264.3
323	7.578	4.471	26.9
324	7.596	4.729	18.1
325	7.615	6.009	29.1
326	7.633	58.58	32.6
327	7.651	14.52	30.4
328	7.669	4.459	19.6
329	7.687	5.433	30.3
330	7.705	7.054	36.4
331	7.724	80.24	259.3
332	7.742	29.41	36.1
333	7.760	6.018	29.3
334	7.785	5.756	62.8
335	7.810	8.678	30.9
336	7.835	80.29	37.9
337	7.860	15.94	33.8
338	7.885	22.58	149.6
339	7.910	4.480	26.9
340	7.935	5.453	31.1
341	7.960	16.83	414.8
342	8.000	80.87	253.9
343	8.040	80.08	252.3
344	8.080	18.37	40.1
345	8.120	6.234	30.4
346	8.160	7.635	31.4
347	8.200	12.83	32.3
348	8.240	26.10	15.4
349	8.280	82.50	273.4
350	8.320	5.575	28.4
351	8.360	79.29	34.6
352	8.389	40.13	1704.4
353	8.417	5.365	29.4
354	8.446	10.27	31.9
355	8.474	10.85	40.6
356	8.503	4.748	23.4
357	8.531	4.658	29.9
358	8.560	6.776	44.1
359	8.578	77.31	198.3
360	8.596	76.79	245.6
361	8.615	7.675	30.8
362	8.633	15.30	26.0
363	8.651	6.729	31.0
364	8.669	13.30	32.0
365	8.687	5.766	31.3
366	8.705	59.30	33.1
367	8.724	57.30	37.8
368	8.742	77.64	33.5
369	8.760	77.02	39.5
370	8.774	13.96	19.6
371	8.789	10.06	32.5
372	8.803	4.738	9.1
373	8.817	52.96	38.1
374	8.831	15.95	28.8
375	8.846	4.888	27.6
376	8.860	8.264	717.3
377	8.874	4.716	39.6
378	8.889	5.417	31.0
379	8.903	6.907	31.3
380	8.917	7.455	30.1
381	8.931	86.85	287.0
382	8.946	10.93	31.6
383	8.960	22.66	15.8
384	8.980	4.764	32.8
385	9.000	4.601	27.3
386	9.020	19.35	37.0
387	9.040	80.57	269.1
388	9.060	32.11	244.3
389	9.080	4.693	27.1
390	9.100	56.84	38.3
391	9.120	60.09	38.3
392	9.140	6.017	31.6
393	9.160	11.09	29.5
394	9.182	5.512	31.0
395	9.204	60.58	37.6
396	9.227	42.49	32.1
397	9.249	9.768	862.6
398	9.271	5.148	30.8
399	9.293	5.476	28.6
400	9.316	80.63	270.5
401	9.338	5.901	32.0
402	9.360	8.965	31.6
403	9.400	12.92	31.3
404	9.440	6.586	30.8
405	9.480	6.367	29.8
406	9.520	6.252	30.5
407	9.560	6.693	28.8
408	9.582	60.99	38.5
409	9.604	88.54	37.6
410	9.627	58.45	38.0
411	9.649	22.15	346.5
412	9.671	7.033	34.1
413	9.693	7.203	35.5
414	9.716	29.27	32.6
415	9.738	4.954	13.8
416	9.760	7.144	30.6
417	9.785	5.671	30.5
418	9.810	18.40	32.5
419	9.835	6.439	31.1
420	9.860	5.824	29.1
421	9.885	83.60	33.3
422	9.910	4.555	26.5
423	9.935	5.321	30.1
424	9.960	6.813	59.6
425	9.989	4.865	28.3
426	10.017	29.47	46.0
427	10.046	5.558	32.1
428	10.074	4.794	28.3
429	10.103	10.60	43.5
430	10.131	9.530	30.8
431	10.160	81.98	295.8
432	10.185	79.43	37.5
433	10.210	78.45	255.5
434	10.235	61.00	37.8
435	10.260	14.48	41.0
436	10.285	78.39	37.8
437	10.310	58.65	40.1
438	10.335	15.32	35.6
439	10.360	7.897	30.3
440	10.389	7.975	62.8
441	10.417	52.70	41.3
442	10.446	60.35	36.8
443	10.474	57.91	33.3
444	10.503	64.30	38.5
445	10.531	7.450	32.3
446	10.560	7.695	36.6
447	10.600	5.535	4850.0
448	10.640	74.84	33.6
449	10.680	4.971	26.5
450	10.720	4.948	29.1
451	10.760	16.30	504.8
452	10.800	13.20	31.6
453	10.840	5.554	32.1
454	10.880	7.751	30.8
455	10.920	7.051	29.1
456	10.960	13.31	32.0
457	10.982	4.615	21.1
458	11.004	4.669	26.3
459	11.027	59.46	37.3
460	11.049	61.14	33.0
461	11.071	4.935	29.6
462	11.093	5.128	29.3
463	11.116	8.466	30.5
464	11.138	4.901	32.5
465	11.160	5.664	28.0
466	11.175	6.721	43.3
467	11.191	6.300	29.7
468	11.206	6.251	29.2
469	11.222	79.87	257.5
470	11.237	5.245	29.5
471	11.252	6.903	42.8
472	11.268	6.209	31.0
473	11.283	5.602	34.7
474	11.298	30.44	246.5
475	11.314	60.38	38.3
476	11.329	57.61	38.0
477	11.345	17.85	38.8
478	11.360	5.275	27.2
479	11.382	10.91	34.7
480	11.404	7.652	32.3
481	11.427	13.85	33.2
482	11.449	62.21	39.7
483	11.471	10.63	30.2
484	11.493	5.586	53.8
485	11.516	79.88	653.7
486	11.538	55.74	32.7
487	11.560	4.979	8.7
488	11.593	8.326	32.8
489	11.627	11.77	32.5
490	11.660	62.86	41.2
491	11.693	6.071	31.5
492	11.727	60.78	38.8
493	11.760	6.570	29.2
494	11.780	7.207	31.2
495	11.800	11.74	32.7
496	11.820	4.689	29.5
497	11.840	15.90	28.0
498	11.860	59.47	32.7
499	11.880	4.439	21.8
500	11.900	5.522	30.0
501	11.920	5.536	72.7
502	11.940	7.636	34.5
503	11.960	63.60	33.5
504	11.985	57.07	32.7
505	12.010	23.83	377.3
506	12.035	10.58	31.2
507	12.060	57.59	32.8
508	12.085	6.443	30.0
509	12.110	4.493	22.2
510	12.135	4.659	25.5
511	12.160	7.380	32.7
512	12.180	6.612	30.8
513	12.200	78.76	38.5
514	12.220	12.72	33.5
515	12.240	5.804	35.8
516	12.260	60.96	35.7
517	12.280	78.21	37.8
518	12.300	8.294	40.0
519	12.320	82.51	37.7
520	12.340	8.848	30.0
521	12.360	13.05	29.7
522	12.382	5.148	30.2
523	12.404	54.89	32.7
524	12.427	6.796	31.2
525	12.449	55.08	34.3
526	12.471	5.036	16.5
527	12.493	4.857	20.3
528	12.516	5.003	32.2
529	12.538	17.06	32.8
530	12.560	5.598	49.5
531	12.585	19.95	32.7
532	12.610	8.840	30.5
533	12.635	23.77	524.2
534	12.660	91.18	297.0
535	12.685	5.666	29.2
536	12.710	10.64	33.0
537	12.735	58.15	32.8
538	12.760	5.734	27.5
539	12.782	57.97	38.2
540	12.804	77.15	33.0
541	12.827	13.88	18.3
542	12.849	13.09	31.2
543	12.871	5.355	28.0
544	12.893	14.05	20.2
545	12.916	5.020	30.5
546	12.938	5.585	33.0
547	12.960	8.026	490.0
548	12.985	9.574	32.0
549	13.010	4.445	25.7
550	13.035	6.964	32.2
551	13.060	5.630	30.2
552	13.085	18.85	32.3
553	13.110	4.683	27.7
554	13.135	55.91	37.0
555	13.160	9.902	31.2
556	13.193	16.67	24.0
557	13.227	22.19	694.2
558	13.260	63.76	33.7
559	13.293	78.45	256.7
560	13.327	62.68	37.7
561	13.360	59.72	33.0
562	13.385	6.885	31.2
563	13.410	7.210	31.5
564	13.435	6.616	29.7
565	13.460	9.171	32.4
566	13.485	6.511	30.7
567	13.510	16.87	30.7
568	13.535	6.158	28.4
569	13.560	4.710	28.9
570	13.589	5.591	32.5
571	13.617	4.776	9.7
572	13.646	5.499	30.4
573	13.674	4.532	28.9
574	13.703	5.564	29.5
575	13.731	15.04	25.9
576	13.760	11.63	31.5
577	13.782	5.155	2362.7
578	13.804	9.334	62.7
579	13.827	6.152	32.0
580	13.849	4.676	25.4
581	13.871	6.232	30.0
582	13.893	4.588	27.9
583	13.916	76.32	33.2
584	13.938	6.920	31.4
585	13.960	4.820	29.0
586	13.982	16.72	23.0
587	14.004	59.24	36.9
588	14.027	7.149	30.7
589	14.049	12.39	30.7
590	14.071	25.09	26.2
591	14.093	12.03	31.9
592	14.116	62.29	38.0
593	14.138	8.228	30.0
594	14.160	75.71	33.9
595	14.193	7.465	37.9
596	14.227	61.30	33.9
597	14.260	10.02	40.0
598	14.293	5.333	30.5
599	14.327	5.636	32.9
600	14.360	4.647	27.4
601	14.400	4.529	29.0
602	14.440	4.972	34.9
603	14.480	79.50	38.0
604	14.520	6.706	29.4
605	14.560	4.904	30.4
606	14.575	80.71	34.4
607	14.591	5.125	10.7
608	14.606	10.14	31.7
609	14.622	5.144	28.2
610	14.637	6.655	29.9
611	14.652	10.01	184.4
612	14.668	40.58	37.5
613	14.683	59.42	38.0
614	14.698	36.30	1323.5
615	14.714	5.290	36.7
616	14.729	61.70	37.9
617	14.745	6.842	29.5
618	14.760	4.704	30.7
619	14.778	5.269	37.0
620	14.796	55.21	40.5
621	14.815	6.867	627.0
622	14.833	62.95	36.2
623	14.851	75.20	37.7
624	14.869	4.785	28.4
625	14.887	15.77	31.2
626	14.905	79.45	37.4
627	14.924	15.81	30.7
628	14.942	61.08	37.7
629	14.960	5.968	30.7
630	14.989	57.66	38.5
631	15.017	9.033	36.5
632	15.046	61.03	38.2
633	15.074	4.663	30.0
634	15.103	5.456	25.0
635	15.131	4.505	12.4
636	15.160	6.415	6.7
637	15.180	6.071	11.4
638	15.200	5.203	29.7
639	15.220	14.78	357.2
640	15.240	4.919	45.0
641	15.260	63.98	37.5
642	15.280	4.613	26.7
643	15.300	11.46	30.7
644	15.320	4.892	12.2
645	15.340	5.487	29.5
646	15.360	4.973	41.0
647	15.400	80.78	33.9
648	15.440	12.66	31.2
649	15.480	5.282	28.0
650	15.520	5.176	11.9
651	15.560	5.605	112.7
652	15.593	56.07	33.9
653	15.627	80.68	33.9
654	15.660	9.166	43.9
655	15.693	4.895	27.4
656	15.727	5.595	36.2
657	15.760	6.518	42.4
658	15.774	82.22	45.0
659	15.789	6.166	32.2
660	15.803	58.50	36.7
661	15.817	4.506	27.2
662	15.831	11.62	31.7
663	15.846	37.83	1429.9
664	15.860	6.538	34.5
665	15.874	11.94	39.0
666	15.889	4.551	25.5
667	15.903	54.35	32.6
668	15.917	5.372	28.9
669	15.931	58.05	32.9
670	15.946	17.72	36.1
671	15.960	4.804	29.2
672	15.989	9.902	623.1
673	16.017	54.75	37.9
674	16.046	5.017	25.6
675	16.074	4.991	29.7
676	16.103	82.57	33.4
677	16.131	14.26	34.1
678	16.160	4.790	2491.6
679	16.193	13.77	8.9
680	16.227	5.324	11.1
681	16.260	86.37	36.9
682	16.293	57.49	37.7
683	16.327	57.16	37.9
684	16.360	4.815	29.4
685	16.389	5.943	30.6
686	16.417	9.299	32.2
687	16.446	5.142	30.2
688	16.474	80.70	286.9
689	16.503	6.742	30.4
690	16.531	5.262	30.1
691	16.560	4.523	25.1
692	16.589	59.31	32.6
693	16.617	4.583	25.7
694	16.646	6.487	716.4
695	16.674	6.448	31.2
696	16.703	87.72	305.7
697	16.731	60.35	38.4
698	16.760	62.83	32.7
699	16.810	4.672	29.1
700	16.860	5.832	32.6
701	16.910	6.971	30.7
702	16.960	5.247	30.4
703	16.985	5.271	33.2
704	17.010	4.751	28.1
705	17.035	4.823	29.7
706	17.060	14.19	26.9
707	17.085	11.17	31.1
708	17.110	7.384	30.9
709	17.135	58.38	33.1
710	17.160	5.011	30.6
711	17.189	5.450	31.4
712	17.217	79.76	261.7
713	17.246	77.42	32.9
714	17.274	5.728	31.6
715	17.303	5.422	30.7
716	17.331	5.775	34.1
717	17.360	4.744	30.4
718	17.374	43.09	33.1
719	17.389	6.745	31.6
720	17.403	5.280	434.7
721	17.417	80.97	259.9
722	17.431	11.58	31.2
723	17.446	11.58	31.6
724	17.460	7.162	30.4
725	17.474	5.193	35.4
726	17.489	7.226	37.7
727	17.503	60.61	38.2
728	17.517	44.97	24.2
729	17.531	60.22	33.6
730	17.546	78.85	33.2
731	17.560	10.65	32.1
732	17.589	10.13	31.9
733	17.617	4.921	30.9
734	17.646	7.618	31.2
735	17.674	6.404	32.1
736	17.703	4.859	28.7
737	17.731	6.275	36.1
738	17.760	59.17	32.6
739	17.780	5.022	10.4
740	17.800	60.43	32.9
741	17.820	94.09	321.6
742	17.840	5.371	35.6
743	17.860	14.08	20.1
744	17.880	9.910	31.6
745	17.900	9.937	37.9
746	17.920	4.887	28.9
747	17.940	77.98	327.1
748	17.960	56.78	38.4
749	17.977	6.337	40.9
750	17.993	4.670	29.2
751	18.010	13.83	25.7
752	18.027	7.653	30.1
753	18.043	4.715	27.4
754	18.060	4.867	27.2
755	18.077	4.807	24.9
756	18.093	58.42	33.1
757	18.110	56.06	32.9
758	18.127	6.853	32.7
759	18.143	57.56	39.2
760	18.160	79.19	33.2
761	18.185	6.005	31.7
762	18.210	11.22	30.9
763	18.235	5.328	33.2
764	18.260	10.18	30.7
765	18.285	56.92	38.1
766	18.310	60.34	32.7
767	18.335	4.629	26.6
768	18.360	10.36	34.4
769	18.389	5.966	818.9
770	18.417	5.881	31.4
771	18.446	82.56	274.4
772	18.474	11.12	31.8
773	18.503	62.65	38.1
774	18.531	74.51	38.1
775	18.560	6.042	33.1
776	18.627	80.37	33.1
777	18.693	5.872	38.3
778	18.760	5.683	31.9
779	18.778	86.14	306.9
780	18.796	59.33	33.6
781	18.815	12.98	32.3
782	18.833	59.69	32.8
783	18.851	7.171	30.9
784	18.869	5.903	30.9
785	18.887	5.126	37.3
786	18.905	4.843	28.8
787	18.924	61.71	37.6
788	18.942	5.528	28.9
789	18.960	4.705	24.8
790	18.977	77.09	37.8
791	18.993	8.998	31.4
792	19.010	8.342	43.3
793	19.027	63.00	32.9
794	19.043	14.99	28.3
795	19.060	58.25	32.9
796	19.077	79.15	289.6
797	19.093	5.913	34.1
798	19.110	6.821	30.1
799	19.127	13.82	24.1
800	19.143	21.86	22.1
801	19.160	5.076	27.1
802	19.200	6.702	32.6
803	19.240	6.926	32.4
804	19.280	56.63	38.8
805	19.320	14.23	21.3
806	19.360	5.072	33.1
807	19.400	9.709	31.3
808	19.440	12.20	31.8
809	19.480	4.539	7.4
810	19.520	78.34	242.1
811	19.560	13.60	17.4
812	19.578	5.030	27.8
813	19.596	61.42	38.3
814	19.615	7.975	34.4
815	19.633	8.694	344.9
816	19.651	7.689	36.4
817	19.669	58.95	32.9
818	19.687	4.657	22.8
819	19.705	5.259	32.1
820	19.724	7.355	83.1
821	19.742	6.276	31.9
822	19.760	11.16	31.4
823	19.778	15.15	25.1
824	19.796	8.376	31.9
825	19.815	38.06	33.1
826	19.833	5.192	548.1
827	19.851	9.461	33.4
828	19.869	5.444	27.6
829	19.887	7.960	32.1
830	19.905	5.659	36.4
831	19.924	5.365	31.3
832	19.942	8.620	42.8
833	19.960	57.47	37.8
834	19.985	81.22	33.6
835	20.010	4.744	10.8
836	20.035	6.652	32.3
837	20.060	5.083	30.3
838	20.085	18.11	32.9
839	20.110	4.642	16.4
840	20.135	6.868	31.4
841	20.160	7.110	33.1
842	20.193	5.073	28.9
843	20.227	6.132	48.1
844	20.260	5.604	30.1
845	20.293	4.791	31.3
846	20.327	9.835	22.9
847	20.360	4.859	27.4
848	20.385	7.247	72.9
849	20.410	60.26	38.3
850	20.435	6.253	29.1
851	20.460	56.88	41.6
852	20.485	57.01	38.1
853	20.510	5.336	31.1
854	20.535	11.27	32.1
855	20.560	5.494	44.8
856	20.585	9.513	31.1
857	20.610	79.71	33.3
858	20.635	15.52	31.4
859	20.660	6.339	29.4
860	20.685	60.64	32.8
861	20.710	8.199	34.4
862	20.735	4.589	25.9
863	20.760	13.18	30.9
864	20.785	56.67	38.1
865	20.810	6.205	30.3
866	20.835	58.06	32.9
867	20.860	8.180	30.6
868	20.885	38.50	32.1
869	20.910	64.81	38.1
870	20.935	58.01	38.4
871	20.960	58.51	36.8
872	20.989	5.405	31.3
